"6Mn+4cr G2B1 - RawData"
"Wavelength nm.","Abs."
200.00,3.7974
201.00,3.2997
202.00,2.8853
203.00,2.6010
204.00,2.3678
205.00,2.1796
206.00,2.0180
207.00,1.8832
208.00,1.7701
209.00,1.6732
210.00,1.5928
211.00,1.5276
212.00,1.4615
213.00,1.4109
214.00,1.3641
215.00,1.3238
216.00,1.2871
217.00,1.2549
218.00,1.2274
219.00,1.2018
220.00,1.1794
221.00,1.1593
222.00,1.1413
223.00,1.1242
224.00,1.1082
225.00,1.0933
226.00,1.0790
227.00,1.0648
228.00,1.0512
229.00,1.0382
230.00,1.0253
231.00,1.0126
232.00,0.9997
233.00,0.9867
234.00,0.9734
235.00,0.9598
236.00,0.9460
237.00,0.9321
238.00,0.9190
239.00,0.9054
240.00,0.8920
241.00,0.8785
242.00,0.8653
243.00,0.8517
244.00,0.8386
245.00,0.8257
246.00,0.8132
247.00,0.8008
248.00,0.7889
249.00,0.7777
250.00,0.7669
251.00,0.7565
252.00,0.7467
253.00,0.7378
254.00,0.7289
255.00,0.7197
256.00,0.7108
257.00,0.7021
258.00,0.6939
259.00,0.6861
260.00,0.6783
261.00,0.6708
262.00,0.6637
263.00,0.6565
264.00,0.6501
265.00,0.6441
266.00,0.6382
267.00,0.6334
268.00,0.6291
269.00,0.6251
270.00,0.6226
271.00,0.6204
272.00,0.6194
273.00,0.6194
274.00,0.6200
275.00,0.6214
276.00,0.6238
277.00,0.6275
278.00,0.6324
279.00,0.6378
280.00,0.6433
281.00,0.6502
282.00,0.6580
283.00,0.6670
284.00,0.6768
285.00,0.6872
286.00,0.6971
287.00,0.7073
288.00,0.7186
289.00,0.7312
290.00,0.7448
291.00,0.7568
292.00,0.7668
293.00,0.7767
294.00,0.7881
295.00,0.8007
296.00,0.8135
297.00,0.8244
298.00,0.8319
299.00,0.8378
300.00,0.8442
301.00,0.8528
302.00,0.8631
303.00,0.8743
304.00,0.8791
305.00,0.8806
306.00,0.8786
307.00,0.8794
308.00,0.8841
309.00,0.8908
310.00,0.8966
311.00,0.8966
312.00,0.8920
313.00,0.8848
314.00,0.8799
315.00,0.8797
316.00,0.8839
317.00,0.8891
318.00,0.8913
319.00,0.8882
320.00,0.8810
321.00,0.8743
322.00,0.8711
323.00,0.8720
324.00,0.8747
325.00,0.8797
326.00,0.8815
327.00,0.8814
328.00,0.8772
329.00,0.8738
330.00,0.8721
331.00,0.8751
332.00,0.8785
333.00,0.8826
334.00,0.8849
335.00,0.8869
336.00,0.8869
337.00,0.8883
338.00,0.8881
339.00,0.8887
340.00,0.8913
341.00,0.8924
342.00,0.8950
343.00,0.8957
344.00,0.8969
345.00,0.8967
346.00,0.8980
347.00,0.8958
348.00,0.8942
349.00,0.8922
350.00,0.8903
351.00,0.8874
352.00,0.8849
353.00,0.8804
354.00,0.8769
355.00,0.8708
356.00,0.8646
357.00,0.8575
358.00,0.8506
359.00,0.8440
360.00,0.8267
361.00,0.8197
362.00,0.8117
363.00,0.8033
364.00,0.7944
365.00,0.7836
366.00,0.7734
367.00,0.7628
368.00,0.7531
369.00,0.7435
370.00,0.7343
371.00,0.7265
372.00,0.7170
373.00,0.7074
374.00,0.6995
375.00,0.6966
376.00,0.6838
377.00,0.6719
378.00,0.6606
379.00,0.6491
380.00,0.6388
381.00,0.6303
382.00,0.6213
383.00,0.6123
384.00,0.6034
385.00,0.5936
386.00,0.5845
387.00,0.5741
388.00,0.5641
389.00,0.5541
390.00,0.5464
391.00,0.5381
392.00,0.5305
393.00,0.5234
394.00,0.5173
395.00,0.5108
396.00,0.5042
397.00,0.4982
398.00,0.4919
399.00,0.4865
400.00,0.4807
401.00,0.4754
402.00,0.4696
403.00,0.4649
404.00,0.4602
405.00,0.4563
406.00,0.4516
407.00,0.4478
408.00,0.4445
409.00,0.4413
410.00,0.4381
411.00,0.4351
412.00,0.4318
413.00,0.4294
414.00,0.4267
415.00,0.4244
416.00,0.4216
417.00,0.4195
418.00,0.4173
419.00,0.4151
420.00,0.4130
421.00,0.4107
422.00,0.4089
423.00,0.4067
424.00,0.4053
425.00,0.4008
426.00,0.3987
427.00,0.3968
428.00,0.3950
429.00,0.3931
430.00,0.3911
431.00,0.3894
432.00,0.3877
433.00,0.3859
434.00,0.3844
435.00,0.3831
436.00,0.3818
437.00,0.3804
438.00,0.3792
439.00,0.3776
440.00,0.3762
441.00,0.3747
442.00,0.3734
443.00,0.3717
444.00,0.3704
445.00,0.3692
446.00,0.3683
447.00,0.3678
448.00,0.3674
449.00,0.3671
450.00,0.3672
451.00,0.3672
452.00,0.3674
453.00,0.3675
454.00,0.3673
455.00,0.3668
456.00,0.3663
457.00,0.3659
458.00,0.3655
459.00,0.3654
460.00,0.3658
461.00,0.3665
462.00,0.3681
463.00,0.3704
464.00,0.3735
465.00,0.3769
466.00,0.3807
467.00,0.3845
468.00,0.3880
469.00,0.3912
470.00,0.3936
471.00,0.3954
472.00,0.3967
473.00,0.3977
474.00,0.3985
475.00,0.3999
476.00,0.4022
477.00,0.4060
478.00,0.4109
479.00,0.4174
480.00,0.4251
481.00,0.4339
482.00,0.4434
483.00,0.4531
484.00,0.4625
485.00,0.4711
486.00,0.4781
487.00,0.4835
488.00,0.4871
489.00,0.4892
490.00,0.4901
491.00,0.4906
492.00,0.4914
493.00,0.4936
494.00,0.4973
495.00,0.5036
496.00,0.5124
497.00,0.5238
498.00,0.5372
499.00,0.5520
500.00,0.5672
501.00,0.5834
502.00,0.5989
503.00,0.6120
504.00,0.6229
505.00,0.6302
506.00,0.6342
507.00,0.6342
508.00,0.6314
509.00,0.6267
510.00,0.6210
511.00,0.6161
512.00,0.6129
513.00,0.6126
514.00,0.6155
515.00,0.6224
516.00,0.6328
517.00,0.6464
518.00,0.6627
519.00,0.6801
520.00,0.6984
521.00,0.7157
522.00,0.7313
523.00,0.7437
524.00,0.7516
525.00,0.7546
526.00,0.7519
527.00,0.7439
528.00,0.7320
529.00,0.7163
530.00,0.6982
531.00,0.6805
532.00,0.6643
533.00,0.6505
534.00,0.6404
535.00,0.6346
536.00,0.6332
537.00,0.6358
538.00,0.6420
539.00,0.6510
540.00,0.6614
541.00,0.6721
542.00,0.6831
543.00,0.6926
544.00,0.6994
545.00,0.7025
546.00,0.7007
547.00,0.6935
548.00,0.6813
549.00,0.6637
550.00,0.6414
551.00,0.6161
552.00,0.5893
553.00,0.5615
554.00,0.5347
555.00,0.5102
556.00,0.4892
557.00,0.4701
558.00,0.4549
559.00,0.4433
560.00,0.4348
561.00,0.4289
562.00,0.4255
563.00,0.4233
564.00,0.4225
565.00,0.4218
566.00,0.4211
567.00,0.4194
568.00,0.4164
569.00,0.4111
570.00,0.4038
571.00,0.3939
572.00,0.3815
573.00,0.3674
574.00,0.3506
575.00,0.3322
576.00,0.3130
577.00,0.2928
578.00,0.2736
579.00,0.2549
580.00,0.2374
581.00,0.2212
582.00,0.2067
583.00,0.1937
584.00,0.1824
585.00,0.1725
586.00,0.1639
587.00,0.1567
588.00,0.1506
589.00,0.1452
590.00,0.1409
591.00,0.1370
592.00,0.1336
593.00,0.1308
594.00,0.1282
595.00,0.1260
596.00,0.1240
597.00,0.1222
598.00,0.1205
599.00,0.1189
600.00,0.1174
601.00,0.1159
602.00,0.1145
603.00,0.1131
604.00,0.1117
605.00,0.1104
606.00,0.1091
607.00,0.1078
608.00,0.1067
609.00,0.1054
610.00,0.1042
611.00,0.1031
612.00,0.1021
613.00,0.1011
614.00,0.1002
615.00,0.0992
616.00,0.0983
617.00,0.0975
618.00,0.0967
619.00,0.0959
620.00,0.0952
621.00,0.0944
622.00,0.0935
623.00,0.0929
624.00,0.0922
625.00,0.0914
626.00,0.0907
627.00,0.0900
628.00,0.0893
629.00,0.0886
630.00,0.0880
631.00,0.0872
632.00,0.0865
633.00,0.0858
634.00,0.0851
635.00,0.0844
636.00,0.0838
637.00,0.0831
638.00,0.0823
639.00,0.0817
640.00,0.0811
641.00,0.0803
642.00,0.0795
643.00,0.0788
644.00,0.0781
645.00,0.0774
646.00,0.0766
647.00,0.0759
648.00,0.0752
649.00,0.0744
650.00,0.0737
651.00,0.0729
652.00,0.0721
653.00,0.0715
654.00,0.0708
655.00,0.0701
656.00,0.0693
657.00,0.0685
658.00,0.0678
659.00,0.0670
660.00,0.0663
661.00,0.0656
662.00,0.0650
663.00,0.0643
664.00,0.0637
665.00,0.0631
666.00,0.0623
667.00,0.0616
668.00,0.0610
669.00,0.0602
670.00,0.0596
671.00,0.0589
672.00,0.0582
673.00,0.0576
674.00,0.0569
675.00,0.0563
676.00,0.0558
677.00,0.0551
678.00,0.0545
679.00,0.0539
680.00,0.0532
681.00,0.0526
682.00,0.0519
683.00,0.0513
684.00,0.0507
685.00,0.0500
686.00,0.0494
687.00,0.0488
688.00,0.0481
689.00,0.0475
690.00,0.0468
691.00,0.0463
692.00,0.0457
693.00,0.0452
694.00,0.0447
695.00,0.0441
696.00,0.0436
697.00,0.0431
698.00,0.0426
699.00,0.0420
700.00,0.0415
